Index,T (C),P (kbars),log(10) f O2,mass (gm),rho (gm/cc),wt% SiO2,wt% TiO2,wt% Al2O3,wt% Fe2O3,wt% Cr2O3,wt% FeO,wt% MnO,wt% MgO,wt% NiO,wt% CoO,wt% CaO,wt% Na2O,wt% K2O,wt% P2O5,wt% H2O,wt% CO2,wt% SO3,wt% Cl2O-1,wt% F2O-1,G (kJ),H (kJ),S (J/K),V (cc),Cp (J/K),       albite,    anorthite,     sanidine
29,920.00,2.000,-11.534,1.0188,2.6477,54.1938,0.0000,29.1839,0.0000,0.0000,0.0000,0.0000,0.0000,0.0000,0.0000,11.4316,4.9423,0.2484,0.0000,0.0000,0.0000,0.0000,0.0000,0.0000,-16.990,-14.282,2.270,0.385,1.230,0.432667,0.553026,0.014307
30,910.00,2.000,-11.711,2.4951,2.6459,54.5264,0.0000,28.9567,0.0000,0.0000,0.0000,0.0000,0.0000,0.0000,0.0000,11.1666,5.0877,0.2626,0.0000,0.0000,0.0000,0.0000,0.0000,0.0000,-41.554,-34.999,5.540,0.943,3.010,0.445076,0.539809,0.015115
31,900.00,2.000,-11.890,3.9069,2.6441,54.8467,0.0000,28.7376,0.0000,0.0000,0.0000,0.0000,0.0000,0.0000,0.0000,10.9111,5.2273,0.2773,0.0000,0.0000,0.0000,0.0000,0.0000,0.0000,-64.974,-54.836,8.642,1.478,4.711,0.456963,0.527089,0.015948
